wavelength_nm,intensity
380.000000,0.000000
382.000000,0.000000
384.000000,0.000000
386.000000,0.000000
388.000000,0.000000
390.000000,0.000000
392.000000,0.000000
394.000000,0.000000
396.000000,0.000000
398.000000,0.000000
400.000000,0.000000
402.000000,0.000000
404.000000,0.000000
406.000000,0.000000
408.000000,0.000000
410.000000,0.000000
412.000000,0.000000
414.000000,0.000000
416.000000,0.000000
418.000000,0.000000
420.000000,0.000000
422.000000,0.000000
424.000000,0.000000
426.000000,0.000000
428.000000,0.000000
430.000000,0.000000
432.000000,0.000000
434.000000,0.000000
436.000000,0.000000
438.000000,0.000000
440.000000,0.000000
442.000000,0.000000
444.000000,0.000000
446.000000,0.000000
448.000000,0.000000
450.000000,0.000000
452.000000,0.000000
454.000000,0.000000
456.000000,0.000000
458.000000,0.000000
460.000000,0.000000
462.000000,0.000000
464.000000,0.000000
466.000000,0.000000
468.000000,0.000000
470.000000,0.000000
472.000000,0.000000
474.000000,0.000000
476.000000,0.000000
478.000000,0.000000
480.000000,0.000000
482.000000,0.000000
484.000000,0.000000
486.000000,0.000000
488.000000,0.000000
490.000000,0.000000
492.000000,0.000000
494.000000,0.000000
496.000000,0.000000
498.000000,0.000000
500.000000,0.000000
502.000000,0.000000
504.000000,0.000000
506.000000,0.000000
508.000000,0.000000
510.000000,0.000000
512.000000,0.000000
514.000000,0.000000
516.000000,0.000000
518.000000,0.000000
520.000000,0.000000
522.000000,0.000000
524.000000,0.000000
526.000000,0.000000
528.000000,0.000000
530.000000,0.000000
532.000000,0.000000
534.000000,0.000000
536.000000,0.000000
538.000000,0.000000
540.000000,0.000000
542.000000,0.000000
544.000000,0.000000
546.000000,0.000000
548.000000,0.000000
550.000000,0.005550
550.200000,0.006640
550.400000,0.007080
550.600000,0.007580
550.800000,0.007880
551.000000,0.008070
551.200000,0.008140
551.400000,0.008420
551.600000,0.008600
551.800000,0.008810
552.000000,0.008820
552.200000,0.009130
552.400000,0.009450
552.600000,0.009770
552.800000,0.009560
553.000000,0.009780
553.200000,0.010040
553.400000,0.010150
553.600000,0.010530
553.800000,0.010670
554.000000,0.010870
554.200000,0.011140
554.400000,0.011090
554.600000,0.011200
554.800000,0.011180
555.000000,0.011310
555.200000,0.011630
555.400000,0.012160
555.600000,0.012130
555.800000,0.012320
556.000000,0.012620
556.200000,0.012750
556.400000,0.013260
556.600000,0.013600
556.800000,0.013790
557.000000,0.013900
557.200000,0.014120
557.400000,0.014410
557.600000,0.014640
557.800000,0.014870
558.000000,0.015010
558.200000,0.015340
558.400000,0.015290
558.600000,0.015800
558.800000,0.016460
559.000000,0.016970
559.200000,0.016970
559.400000,0.017090
559.600000,0.017470
559.800000,0.018000
560.000000,0.018310
560.200000,0.018600
560.400000,0.019050
560.600000,0.019680
560.800000,0.019930
561.000000,0.020210
561.200000,0.020420
561.400000,0.020820
561.600000,0.020880
561.800000,0.021680
562.000000,0.021920
562.200000,0.022560
562.400000,0.022750
562.600000,0.023080
562.800000,0.023550
563.000000,0.024050
563.200000,0.024330
563.400000,0.025270
563.600000,0.025680
563.800000,0.026160
564.000000,0.026760
564.200000,0.027380
564.400000,0.027940
564.600000,0.028270
564.800000,0.028410
565.000000,0.029070
565.200000,0.029930
565.400000,0.030470
565.600000,0.030550
565.800000,0.031410
566.000000,0.031940
566.200000,0.032280
566.400000,0.032920
566.600000,0.034180
566.800000,0.034710
567.000000,0.035400
567.200000,0.036460
567.400000,0.037250
567.600000,0.037850
567.800000,0.039080
568.000000,0.039510
568.200000,0.040310
568.400000,0.040450
568.600000,0.041230
568.800000,0.042200
569.000000,0.042560
569.200000,0.043330
569.400000,0.044570
569.600000,0.045730
569.800000,0.046200
570.000000,0.047260
570.200000,0.048400
570.400000,0.049000
570.600000,0.049450
570.800000,0.050570
571.000000,0.051510
571.200000,0.051930
571.400000,0.052810
571.600000,0.053780
571.800000,0.054220
572.000000,0.055740
572.200000,0.056010
572.400000,0.057890
572.600000,0.058460
572.800000,0.059300
573.000000,0.059740
573.200000,0.061110
573.400000,0.062750
573.600000,0.063860
573.800000,0.064160
574.000000,0.065690
574.200000,0.066490
574.400000,0.069240
574.600000,0.070320
574.800000,0.072060
575.000000,0.074030
575.200000,0.075650
575.400000,0.077620
575.600000,0.078220
575.800000,0.079590
576.000000,0.081530
576.200000,0.084420
576.400000,0.086340
576.600000,0.088270
576.800000,0.089140
577.000000,0.091030
577.200000,0.093050
577.400000,0.094770
577.600000,0.096200
577.800000,0.098390
578.000000,0.100200
578.200000,0.102190
578.400000,0.104850
578.600000,0.106530
578.800000,0.107990
579.000000,0.109920
579.200000,0.111990
579.400000,0.114610
579.600000,0.116960
579.800000,0.118660
580.000000,0.121610
580.200000,0.123830
580.400000,0.126780
580.600000,0.127950
580.800000,0.129920
581.000000,0.132310
581.200000,0.135080
581.400000,0.137070
581.600000,0.138970
581.800000,0.141280
582.000000,0.144050
582.200000,0.146380
582.400000,0.147580
582.600000,0.149080
582.800000,0.152230
583.000000,0.155330
583.200000,0.158490
583.400000,0.162450
583.600000,0.164790
583.800000,0.166990
584.000000,0.168970
584.200000,0.172100
584.400000,0.174480
584.600000,0.177600
584.800000,0.181060
585.000000,0.184370
585.200000,0.186590
585.400000,0.191590
585.600000,0.193370
585.800000,0.196170
586.000000,0.198920
586.200000,0.202240
586.400000,0.205230
586.600000,0.207200
586.800000,0.210210
587.000000,0.213770
587.200000,0.217350
587.400000,0.218850
587.600000,0.221460
587.800000,0.226670
588.000000,0.230240
588.200000,0.232840
588.400000,0.236430
588.600000,0.239320
588.800000,0.243070
589.000000,0.247260
589.200000,0.250810
589.400000,0.255120
589.600000,0.259490
589.800000,0.263190
590.000000,0.266790
590.200000,0.270590
590.400000,0.273170
590.600000,0.276090
590.800000,0.281100
591.000000,0.283200
591.200000,0.285590
591.400000,0.288410
591.600000,0.293250
591.800000,0.297380
592.000000,0.301360
592.200000,0.306230
592.400000,0.310450
592.600000,0.314130
592.800000,0.317550
593.000000,0.320840
593.200000,0.325090
593.400000,0.328360
593.600000,0.332810
593.800000,0.336320
594.000000,0.340000
594.200000,0.345260
594.400000,0.350570
594.600000,0.354960
594.800000,0.358520
595.000000,0.362670
595.200000,0.367980
595.400000,0.374670
595.600000,0.378260
595.800000,0.382360
596.000000,0.387350
596.200000,0.390510
596.400000,0.395650
596.600000,0.398110
596.800000,0.404060
597.000000,0.407490
597.200000,0.412360
597.400000,0.417680
597.600000,0.422100
597.800000,0.426390
598.000000,0.430710
598.200000,0.436000
598.400000,0.440260
598.600000,0.445040
598.800000,0.449650
599.000000,0.454330
599.200000,0.460440
599.400000,0.465600
599.600000,0.469400
599.800000,0.472950
600.000000,0.474080
600.200000,0.479120
600.400000,0.483820
600.600000,0.488030
600.800000,0.492200
601.000000,0.495090
601.200000,0.496840
601.400000,0.501180
601.600000,0.508620
601.800000,0.515420
602.000000,0.518060
602.200000,0.522850
602.400000,0.526670
602.600000,0.532440
602.800000,0.537570
603.000000,0.546010
603.200000,0.549630
603.400000,0.553000
603.600000,0.557800
603.800000,0.565820
604.000000,0.569210
604.200000,0.573030
604.400000,0.577150
604.600000,0.581390
604.800000,0.585030
605.000000,0.591790
605.200000,0.597640
605.400000,0.601230
605.600000,0.608140
605.800000,0.610020
606.000000,0.615360
606.200000,0.621110
606.400000,0.628360
606.600000,0.631620
606.800000,0.637040
607.000000,0.641610
607.200000,0.648310
607.400000,0.652100
607.600000,0.658620
607.800000,0.663380
608.000000,0.666480
608.200000,0.670970
608.400000,0.677500
608.600000,0.684330
608.800000,0.688460
609.000000,0.692680
609.200000,0.695820
609.400000,0.699480
609.600000,0.702590
609.800000,0.709690
610.000000,0.712940
610.200000,0.718410
610.400000,0.722440
610.600000,0.727480
610.800000,0.734380
611.000000,0.739620
611.200000,0.742310
611.400000,0.746170
611.600000,0.750510
611.800000,0.752650
612.000000,0.759110
612.200000,0.764090
612.400000,0.766710
612.600000,0.771050
612.800000,0.776090
613.000000,0.779160
613.200000,0.782920
613.400000,0.786700
613.600000,0.788490
613.800000,0.793380
614.000000,0.799800
614.200000,0.806080
614.400000,0.807290
614.600000,0.809420
614.800000,0.812260
615.000000,0.816030
615.200000,0.822810
615.400000,0.824820
615.600000,0.829090
615.800000,0.832310
616.000000,0.834810
616.200000,0.841570
616.400000,0.846710
616.600000,0.849500
616.800000,0.852460
617.000000,0.855070
617.200000,0.860080
617.400000,0.863320
617.600000,0.865870
617.800000,0.867470
618.000000,0.868310
618.200000,0.872610
618.400000,0.874480
618.600000,0.880880
618.800000,0.884290
619.000000,0.885670
619.200000,0.889010
619.400000,0.890900
619.600000,0.895970
619.800000,0.899770
620.000000,0.901550
620.200000,0.906630
620.400000,0.910290
620.600000,0.912250
620.800000,0.915040
621.000000,0.915050
621.200000,0.918630
621.400000,0.921010
621.600000,0.921200
621.800000,0.919740
622.000000,0.925260
622.200000,0.928620
622.400000,0.930150
622.600000,0.931450
622.800000,0.934670
623.000000,0.934730
623.200000,0.937010
623.400000,0.940910
623.600000,0.942840
623.800000,0.947010
624.000000,0.949740
624.200000,0.952590
624.400000,0.951580
624.600000,0.956970
624.800000,0.960350
625.000000,0.961360
625.200000,0.964200
625.400000,0.962900
625.600000,0.961560
625.800000,0.963900
626.000000,0.964010
626.200000,0.966380
626.400000,0.968950
626.600000,0.969440
626.800000,0.969350
627.000000,0.970040
627.200000,0.971720
627.400000,0.975730
627.600000,0.976520
627.800000,0.976890
628.000000,0.979470
628.200000,0.981730
628.400000,0.981910
628.600000,0.983120
628.800000,0.984680
629.000000,0.985380
629.200000,0.985840
629.400000,0.986700
629.600000,0.991860
629.800000,0.993010
630.000000,0.991040
630.200000,0.992200
630.400000,0.991620
630.600000,0.993000
630.800000,0.993430
631.000000,0.993360
631.200000,0.995830
631.400000,0.997920
631.600000,0.996190
631.800000,0.994850
632.000000,0.997070
632.200000,0.998890
632.400000,1.000000
632.600000,0.999390
632.800000,0.996050
633.000000,0.994340
633.200000,0.997040
633.400000,0.995900
633.600000,0.994340
633.800000,0.994000
634.000000,0.993190
634.200000,0.995560
634.400000,0.996090
634.600000,0.993220
634.800000,0.990700
635.000000,0.992640
635.200000,0.995010
635.400000,0.995570
635.600000,0.990830
635.800000,0.990200
636.000000,0.989460
636.200000,0.989510
636.400000,0.988360
636.600000,0.988500
636.800000,0.989930
637.000000,0.988340
637.200000,0.988130
637.400000,0.987380
637.600000,0.986650
637.800000,0.988750
638.000000,0.985270
638.200000,0.989410
638.400000,0.985880
638.600000,0.983910
638.800000,0.982930
639.000000,0.979660
639.200000,0.976910
639.400000,0.979690
639.600000,0.978120
639.800000,0.977980
640.000000,0.976680
640.200000,0.975840
640.400000,0.971580
640.600000,0.969050
640.800000,0.968260
641.000000,0.971420
641.200000,0.968950
641.400000,0.967900
641.600000,0.968060
641.800000,0.966370
642.000000,0.964680
642.200000,0.961750
642.400000,0.959110
642.600000,0.956740
642.800000,0.958780
643.000000,0.959320
643.200000,0.958100
643.400000,0.953100
643.600000,0.948960
643.800000,0.948000
644.000000,0.945940
644.200000,0.943850
644.400000,0.941830
644.600000,0.939660
644.800000,0.934930
645.000000,0.932630
645.200000,0.933550
645.400000,0.930450
645.600000,0.929040
645.800000,0.925240
646.000000,0.924670
646.200000,0.922360
646.400000,0.920920
646.600000,0.919760
646.800000,0.915160
647.000000,0.912080
647.200000,0.909090
647.400000,0.907430
647.600000,0.905610
647.800000,0.903080
648.000000,0.902360
648.200000,0.901220
648.400000,0.899510
648.600000,0.897720
648.800000,0.896350
649.000000,0.895730
649.200000,0.892310
649.400000,0.888430
649.600000,0.886840
649.800000,0.883120
650.000000,0.882020
650.200000,0.877830
650.400000,0.876910
650.600000,0.872300
650.800000,0.867990
651.000000,0.866050
651.200000,0.862460
651.400000,0.861190
651.600000,0.856690
651.800000,0.854480
652.000000,0.853640
652.200000,0.848830
652.400000,0.845110
652.600000,0.840190
652.800000,0.841110
653.000000,0.839540
653.200000,0.835660
653.400000,0.835060
653.600000,0.829830
653.800000,0.826910
654.000000,0.825960
654.200000,0.822980
654.400000,0.817920
654.600000,0.815000
654.800000,0.813200
655.000000,0.813330
655.200000,0.809150
655.400000,0.806070
655.600000,0.803190
655.800000,0.799950
656.000000,0.794770
656.200000,0.793730
656.400000,0.793340
656.600000,0.791860
656.800000,0.786130
657.000000,0.781350
657.200000,0.778730
657.400000,0.775370
657.600000,0.772540
657.800000,0.768420
658.000000,0.764050
658.200000,0.761200
658.400000,0.759990
658.600000,0.755350
658.800000,0.754660
659.000000,0.751290
659.200000,0.748920
659.400000,0.744510
659.600000,0.740270
659.800000,0.738760
660.000000,0.734870
660.200000,0.731640
660.400000,0.728390
660.600000,0.724990
660.800000,0.724270
661.000000,0.720880
661.200000,0.715990
661.400000,0.710910
661.600000,0.708360
661.800000,0.705590
662.000000,0.700310
662.200000,0.694150
662.400000,0.694130
662.600000,0.692320
662.800000,0.690920
663.000000,0.686170
663.200000,0.680330
663.400000,0.677030
663.600000,0.673930
663.800000,0.672250
664.000000,0.668800
664.200000,0.666120
664.400000,0.662590
664.600000,0.659070
664.800000,0.657800
665.000000,0.653440
665.200000,0.651150
665.400000,0.645170
665.600000,0.643220
665.800000,0.639910
666.000000,0.637980
666.200000,0.636400
666.400000,0.631800
666.600000,0.628060
666.800000,0.622040
667.000000,0.617920
667.200000,0.615560
667.400000,0.610950
667.600000,0.609790
667.800000,0.606050
668.000000,0.603820
668.200000,0.597320
668.400000,0.596360
668.600000,0.591940
668.800000,0.588040
669.000000,0.583100
669.200000,0.582710
669.400000,0.575590
669.600000,0.571320
669.800000,0.568200
670.000000,0.567450
670.200000,0.563780
670.400000,0.559870
670.600000,0.556220
670.800000,0.554410
671.000000,0.548750
671.200000,0.544440
671.400000,0.542730
671.600000,0.541170
671.800000,0.537920
672.000000,0.533480
672.200000,0.530320
672.400000,0.525300
672.600000,0.524920
672.800000,0.520920
673.000000,0.517350
673.200000,0.514300
673.400000,0.511650
673.600000,0.511170
673.800000,0.508830
674.000000,0.504430
674.200000,0.503040
674.400000,0.499660
674.600000,0.496360
674.800000,0.494480
675.000000,0.490740
675.200000,0.490110
675.400000,0.489550
675.600000,0.485810
675.800000,0.482380
676.000000,0.478200
676.200000,0.475630
676.400000,0.472720
676.600000,0.469230
676.800000,0.467460
677.000000,0.466500
677.200000,0.462900
677.400000,0.459580
677.600000,0.456130
677.800000,0.451750
678.000000,0.448870
678.200000,0.445580
678.400000,0.442940
678.600000,0.438270
678.800000,0.436470
679.000000,0.434170
679.200000,0.431270
679.400000,0.429770
679.600000,0.428930
679.800000,0.426630
680.000000,0.423490
680.200000,0.421340
680.400000,0.417740
680.600000,0.414500
680.800000,0.412020
681.000000,0.410000
681.200000,0.407060
681.400000,0.404320
681.600000,0.401430
681.800000,0.397960
682.000000,0.395230
682.200000,0.392030
682.400000,0.390410
682.600000,0.387280
682.800000,0.385980
683.000000,0.381730
683.200000,0.378820
683.400000,0.376980
683.600000,0.375320
683.800000,0.373010
684.000000,0.369470
684.200000,0.368290
684.400000,0.364510
684.600000,0.361090
684.800000,0.359370
685.000000,0.357320
685.200000,0.354720
685.400000,0.352840
685.600000,0.352270
685.800000,0.348940
686.000000,0.346230
686.200000,0.344170
686.400000,0.341750
686.600000,0.341040
686.800000,0.339250
687.000000,0.336380
687.200000,0.334750
687.400000,0.332070
687.600000,0.329220
687.800000,0.326900
688.000000,0.325120
688.200000,0.322190
688.400000,0.319330
688.600000,0.317910
688.800000,0.313910
689.000000,0.312250
689.200000,0.310960
689.400000,0.308480
689.600000,0.307280
689.800000,0.304170
690.000000,0.303110
690.200000,0.299430
690.400000,0.297400
690.600000,0.294770
690.800000,0.294270
691.000000,0.291480
691.200000,0.289460
691.400000,0.286970
691.600000,0.285460
691.800000,0.283920
692.000000,0.281980
692.200000,0.281480
692.400000,0.280120
692.600000,0.278010
692.800000,0.275720
693.000000,0.272650
693.200000,0.272540
693.400000,0.270570
693.600000,0.268040
693.800000,0.266120
694.000000,0.265290
694.200000,0.262940
694.400000,0.260790
694.600000,0.260520
694.800000,0.259460
695.000000,0.256120
695.200000,0.253960
695.400000,0.252680
695.600000,0.250420
695.800000,0.248850
696.000000,0.247510
696.200000,0.245570
696.400000,0.243990
696.600000,0.242380
696.800000,0.241200
697.000000,0.238940
697.200000,0.237680
697.400000,0.236700
697.600000,0.235180
697.800000,0.233490
698.000000,0.232790
698.200000,0.231470
698.400000,0.230370
698.600000,0.228350
698.800000,0.228300
699.000000,0.226380
699.200000,0.224060
699.400000,0.223980
699.600000,0.221760
699.800000,0.220360
700.000000,0.219770
700.200000,0.217660
700.400000,0.216510
700.600000,0.215200
700.800000,0.213410
701.000000,0.212340
701.200000,0.211860
701.400000,0.210380
701.600000,0.209390
701.800000,0.208250
702.000000,0.206760
702.200000,0.204640
702.400000,0.202220
702.600000,0.200740
702.800000,0.200380
703.000000,0.199460
703.200000,0.199420
703.400000,0.197170
703.600000,0.195890
703.800000,0.194520
704.000000,0.193250
704.200000,0.191890
704.400000,0.190800
704.600000,0.188680
704.800000,0.187930
705.000000,0.187000
705.200000,0.185680
705.400000,0.184340
705.600000,0.182870
705.800000,0.181550
706.000000,0.181460
706.200000,0.180440
706.400000,0.179260
706.600000,0.178110
706.800000,0.176770
707.000000,0.177060
707.200000,0.175770
707.400000,0.174710
707.600000,0.173900
707.800000,0.171290
708.000000,0.169710
708.200000,0.169160
708.400000,0.168570
708.600000,0.167710
708.800000,0.165840
709.000000,0.164490
709.200000,0.163400
709.400000,0.162300
709.600000,0.162040
709.800000,0.160820
710.000000,0.160640
710.200000,0.158760
710.400000,0.158720
710.600000,0.157740
710.800000,0.156280
711.000000,0.154960
711.200000,0.153950
711.400000,0.152790
711.600000,0.153220
711.800000,0.151680
712.000000,0.151130
712.200000,0.149640
712.400000,0.148850
712.600000,0.147880
712.800000,0.145680
713.000000,0.144740
713.200000,0.144710
713.400000,0.144930
713.600000,0.145010
713.800000,0.143920
714.000000,0.143130
714.200000,0.140980
714.400000,0.140490
714.600000,0.138870
714.800000,0.137590
715.000000,0.136570
715.200000,0.135050
715.400000,0.134420
715.600000,0.133640
715.800000,0.132140
716.000000,0.131750
716.200000,0.131210
716.400000,0.129840
716.600000,0.129380
716.800000,0.129340
717.000000,0.128540
717.200000,0.127850
717.400000,0.126570
717.600000,0.125530
717.800000,0.125110
718.000000,0.125100
718.200000,0.124160
718.400000,0.122970
718.600000,0.122180
718.800000,0.120670
719.000000,0.119870
719.200000,0.119010
719.400000,0.116970
719.600000,0.115840
719.800000,0.115330
720.000000,0.113900
720.200000,0.112160
720.400000,0.113520
720.600000,0.113520
720.800000,0.111770
721.000000,0.110950
721.200000,0.109890
721.400000,0.109170
721.600000,0.109350
721.800000,0.108380
722.000000,0.106270
722.200000,0.105260
722.400000,0.105460
722.600000,0.104170
722.800000,0.103600
723.000000,0.103600
723.200000,0.103480
723.400000,0.102980
723.600000,0.100950
723.800000,0.101370
724.000000,0.099790
724.200000,0.099250
724.400000,0.098210
724.600000,0.097830
724.800000,0.097720
725.000000,0.097000
725.200000,0.096240
725.400000,0.094920
725.600000,0.093420
725.800000,0.092460
726.000000,0.090760
726.200000,0.089870
726.400000,0.089160
726.600000,0.088210
726.800000,0.087920
727.000000,0.085830
727.200000,0.086310
727.400000,0.086260
727.600000,0.085820
727.800000,0.085350
728.000000,0.083100
728.200000,0.083100
728.400000,0.081770
728.600000,0.081120
728.800000,0.080180
729.000000,0.079820
729.200000,0.079600
729.400000,0.077860
729.600000,0.077490
729.800000,0.077660
730.000000,0.078030
730.200000,0.076480
730.400000,0.075510
730.600000,0.074740
730.800000,0.073930
731.000000,0.073100
731.200000,0.072870
731.400000,0.071990
731.600000,0.071390
731.800000,0.069830
732.000000,0.068730
732.200000,0.068000
732.400000,0.067060
732.600000,0.066450
732.800000,0.064950
733.000000,0.064310
733.200000,0.064520
733.400000,0.064860
733.600000,0.063990
733.800000,0.063450
734.000000,0.062970
734.200000,0.061450
734.400000,0.061100
734.600000,0.060250
734.800000,0.060480
735.000000,0.060000
735.200000,0.059390
735.400000,0.058630
735.600000,0.058350
735.800000,0.058130
736.000000,0.057640
736.200000,0.057310
736.400000,0.056460
736.600000,0.056650
736.800000,0.055900
737.000000,0.055980
737.200000,0.055190
737.400000,0.054290
737.600000,0.053860
737.800000,0.053640
738.000000,0.053390
738.200000,0.053130
738.400000,0.052940
738.600000,0.052670
738.800000,0.051820
739.000000,0.051470
739.200000,0.051090
739.400000,0.051320
739.600000,0.051400
739.800000,0.050810
740.000000,0.050570
740.200000,0.049980
740.400000,0.049400
740.600000,0.048610
740.800000,0.048260
741.000000,0.047580
741.200000,0.047080
741.400000,0.046770
741.600000,0.046320
741.800000,0.046240
742.000000,0.046220
742.200000,0.045930
742.400000,0.045850
742.600000,0.046240
742.800000,0.045070
743.000000,0.045090
743.200000,0.044910
743.400000,0.044110
743.600000,0.044060
743.800000,0.043450
744.000000,0.042730
744.200000,0.042040
744.400000,0.042390
744.600000,0.041780
744.800000,0.041190
745.000000,0.040880
745.200000,0.040840
745.400000,0.040790
745.600000,0.040430
745.800000,0.040370
746.000000,0.039750
746.200000,0.039220
746.400000,0.039220
746.600000,0.038400
746.800000,0.038280
747.000000,0.038770
747.200000,0.038040
747.400000,0.037110
747.600000,0.036940
747.800000,0.036840
748.000000,0.036830
748.200000,0.036490
748.400000,0.036260
748.600000,0.036440
748.800000,0.035990
749.000000,0.035520
749.200000,0.035300
749.400000,0.034530
749.600000,0.034390
749.800000,0.033900
750.000000,0.033630
750.200000,0.033500
750.400000,0.033320
750.600000,0.033380
750.800000,0.033550
751.000000,0.033110
751.200000,0.033020
751.400000,0.032560
751.600000,0.032130
751.800000,0.032200
752.000000,0.032230
752.200000,0.031950
752.400000,0.031420
752.600000,0.030920
752.800000,0.030960
753.000000,0.030310
753.200000,0.030200
753.400000,0.029620
753.600000,0.029410
753.800000,0.029370
754.000000,0.029050
754.200000,0.028810
754.400000,0.028780
754.600000,0.028380
754.800000,0.028510
755.000000,0.028480
755.200000,0.027880
755.400000,0.027840
755.600000,0.027710
755.800000,0.027680
756.000000,0.027420
756.200000,0.027080
756.400000,0.027010
756.600000,0.026680
756.800000,0.026530
757.000000,0.026170
757.200000,0.026040
757.400000,0.025650
757.600000,0.025480
757.800000,0.025700
758.000000,0.025890
758.200000,0.025730
758.400000,0.024960
758.600000,0.024960
758.800000,0.025260
759.000000,0.024940
759.200000,0.025160
759.400000,0.024850
759.600000,0.024290
759.800000,0.023590
760.000000,0.023680
760.200000,0.023320
760.400000,0.023010
760.600000,0.023260
760.800000,0.023230
761.000000,0.023120
761.200000,0.022660
761.400000,0.022720
761.600000,0.022070
761.800000,0.021910
762.000000,0.021820
762.200000,0.021650
762.400000,0.021720
762.600000,0.021310
762.800000,0.021160
763.000000,0.021030
763.200000,0.020700
763.400000,0.020670
763.600000,0.020470
763.800000,0.020950
764.000000,0.020950
764.200000,0.020490
764.400000,0.020580
764.600000,0.020340
764.800000,0.019690
765.000000,0.019440
765.200000,0.019360
765.400000,0.019300
765.600000,0.019230
765.800000,0.018990
766.000000,0.019220
766.200000,0.019070
766.400000,0.018840
766.600000,0.018890
766.800000,0.018820
767.000000,0.019150
767.200000,0.018740
767.400000,0.018580
767.600000,0.018540
767.800000,0.018120
768.000000,0.018280
768.200000,0.017920
768.400000,0.017880
768.600000,0.017560
768.800000,0.017540
769.000000,0.017680
769.200000,0.017530
769.400000,0.017250
769.600000,0.017240
769.800000,0.017100
770.000000,0.016960
770.200000,0.016560
770.400000,0.016360
770.600000,0.016270
770.800000,0.016010
771.000000,0.015820
771.200000,0.015730
771.400000,0.015380
771.600000,0.015490
771.800000,0.015710
772.000000,0.015460
772.200000,0.015620
772.400000,0.015370
772.600000,0.015160
772.800000,0.014970
773.000000,0.014830
773.200000,0.014600
773.400000,0.014480
773.600000,0.014760
773.800000,0.014800
774.000000,0.015020
774.200000,0.014600
774.400000,0.014430
774.600000,0.014310
774.800000,0.014240
775.000000,0.014360
775.200000,0.014480
775.400000,0.014370
775.600000,0.014190
775.800000,0.014190
776.000000,0.014070
776.200000,0.014010
776.400000,0.013950
776.600000,0.013770
776.800000,0.013530
777.000000,0.013830
777.200000,0.013710
777.400000,0.013610
777.600000,0.013420
777.800000,0.013040
778.000000,0.012970
778.200000,0.012980
778.400000,0.012870
778.600000,0.012850
778.800000,0.012630
779.000000,0.012550
779.200000,0.012370
779.400000,0.012660
779.600000,0.012870
779.800000,0.012770
780.000000,0.012520
780.200000,0.012650
780.400000,0.012710
780.600000,0.012670
780.800000,0.012210
781.000000,0.012240
781.200000,0.012120
781.400000,0.012000
781.600000,0.011910
781.800000,0.012050
782.000000,0.011900
782.200000,0.011940
782.400000,0.011520
782.600000,0.011510
782.800000,0.011720
783.000000,0.011600
783.200000,0.011460
783.400000,0.011400
783.600000,0.011220
783.800000,0.011080
784.000000,0.010980
784.200000,0.010910
784.400000,0.011070
784.600000,0.011070
784.800000,0.011100
785.000000,0.011190
785.200000,0.011070
785.400000,0.011040
785.600000,0.011240
785.800000,0.011120
786.000000,0.010860
786.200000,0.010640
786.400000,0.010770
786.600000,0.010780
786.800000,0.010920
787.000000,0.010890
787.200000,0.010770
787.400000,0.010800
787.600000,0.010790
787.800000,0.010850
788.000000,0.010560
788.200000,0.010570
788.400000,0.010280
788.600000,0.010480
788.800000,0.010610
789.000000,0.010350
789.200000,0.010300
789.400000,0.010260
789.600000,0.010310
789.800000,0.010330
790.000000,0.010120
790.200000,0.010120
790.400000,0.010180
790.600000,0.010120
790.800000,0.010030
791.000000,0.010230
791.200000,0.010160
791.400000,0.010200
791.600000,0.009930
791.800000,0.010030
792.000000,0.010000
792.200000,0.009970
792.400000,0.009830
792.600000,0.009720
792.800000,0.009720
793.000000,0.010030
793.200000,0.009850
793.400000,0.009970
793.600000,0.009760
793.800000,0.010100
794.000000,0.009850
794.200000,0.009650
794.400000,0.009510
794.600000,0.009570
794.800000,0.009390
795.000000,0.009420
795.200000,0.009260
795.400000,0.009110
795.600000,0.009260
795.800000,0.009280
796.000000,0.009190
796.200000,0.009270
796.400000,0.009130
796.600000,0.009330
796.800000,0.009430
797.000000,0.009660
797.200000,0.009450
797.400000,0.009560
797.600000,0.009720
797.800000,0.009820
798.000000,0.009800
798.200000,0.009480
798.400000,0.009550
798.600000,0.009560
798.800000,0.009450
799.000000,0.009260
799.200000,0.009160
799.400000,0.009180
799.600000,0.009160
799.800000,0.009060
800.000000,0.009140
