wavelength_nm,intensity
520.000000,0.000000
525.000000,0.020330
525.500000,0.021130
526.000000,0.022220
526.500000,0.023560
527.000000,0.025110
527.500000,0.026790
528.000000,0.028590
528.500000,0.030510
529.000000,0.032600
529.500000,0.034840
530.000000,0.037230
530.500000,0.039720
531.000000,0.042300
531.500000,0.044980
532.000000,0.047810
532.500000,0.050840
533.000000,0.054080
533.500000,0.057530
534.000000,0.061160
534.500000,0.064970
535.000000,0.069010
535.500000,0.073300
536.000000,0.077860
536.500000,0.082650
537.000000,0.087660
537.500000,0.092890
538.000000,0.098400
538.500000,0.104240
539.000000,0.110470
539.500000,0.117070
540.000000,0.123940
540.500000,0.130980
541.000000,0.138170
541.500000,0.145570
542.000000,0.153290
542.500000,0.161480
543.000000,0.170220
543.500000,0.179500
544.000000,0.189300
544.500000,0.199580
545.000000,0.210310
545.500000,0.221460
546.000000,0.233020
546.500000,0.244970
547.000000,0.257250
547.500000,0.269830
548.000000,0.282650
548.500000,0.295700
549.000000,0.309000
549.500000,0.322650
550.000000,0.336740
550.500000,0.351440
551.000000,0.366840
551.500000,0.382910
552.000000,0.399530
552.500000,0.416490
553.000000,0.433620
553.500000,0.450750
554.000000,0.467820
554.500000,0.484830
555.000000,0.501860
555.500000,0.518990
556.000000,0.536250
556.500000,0.553590
557.000000,0.570750
557.500000,0.587480
558.000000,0.603730
558.500000,0.619680
559.000000,0.635680
559.500000,0.651910
560.000000,0.668290
560.500000,0.684510
561.000000,0.700260
561.500000,0.715470
562.000000,0.730360
562.500000,0.745340
563.000000,0.760660
563.500000,0.776240
564.000000,0.791700
564.500000,0.806650
565.000000,0.820960
565.500000,0.834760
566.000000,0.848240
566.500000,0.861520
567.000000,0.874570
567.500000,0.887230
568.000000,0.899360
568.500000,0.910870
569.000000,0.921740
569.500000,0.931990
570.000000,0.941660
570.500000,0.950780
571.000000,0.959330
571.500000,0.967200
572.000000,0.974230
572.500000,0.980310
573.000000,0.985400
573.500000,0.989550
574.000000,0.992920
574.500000,0.995660
575.000000,0.997810
575.500000,0.999300
576.000000,0.999990
576.500000,0.999790
577.000000,0.998630
577.500000,0.996490
578.000000,0.993370
578.500000,0.989320
579.000000,0.984410
579.500000,0.978760
580.000000,0.972430
580.500000,0.965420
581.000000,0.957720
581.500000,0.949380
582.000000,0.940530
582.500000,0.931270
583.000000,0.921580
583.500000,0.911370
584.000000,0.900610
584.500000,0.889440
585.000000,0.878060
585.500000,0.866550
586.000000,0.854850
586.500000,0.842840
587.000000,0.830540
587.500000,0.818050
588.000000,0.805390
588.500000,0.792560
589.000000,0.779570
589.500000,0.766570
590.000000,0.753720
590.500000,0.741070
591.000000,0.728450
591.500000,0.715640
592.000000,0.702560
592.500000,0.689390
593.000000,0.676480
593.500000,0.664080
594.000000,0.652220
594.500000,0.640700
595.000000,0.629280
595.500000,0.617920
596.000000,0.606730
596.500000,0.595920
597.000000,0.585600
597.500000,0.575790
598.000000,0.566380
598.500000,0.557300
599.000000,0.548530
599.500000,0.540100
600.000000,0.532030
600.500000,0.524270
601.000000,0.516760
601.500000,0.509400
602.000000,0.502160
602.500000,0.495050
603.000000,0.488090
603.500000,0.481310
604.000000,0.474730
604.500000,0.468360
605.000000,0.462210
605.500000,0.456300
606.000000,0.450570
606.500000,0.444940
607.000000,0.439390
607.500000,0.434000
608.000000,0.428920
608.500000,0.424270
609.000000,0.420080
609.500000,0.416200
610.000000,0.412380
610.500000,0.408370
611.000000,0.404050
611.500000,0.399480
612.000000,0.394790
612.500000,0.390180
613.000000,0.385750
613.500000,0.381590
614.000000,0.377690
614.500000,0.374020
615.000000,0.370440
615.500000,0.366770
616.000000,0.362890
616.500000,0.358830
617.000000,0.354650
617.500000,0.350360
618.000000,0.345940
618.500000,0.341410
619.000000,0.336880
619.500000,0.332490
620.000000,0.328240
620.500000,0.324050
621.000000,0.319800
621.500000,0.315470
622.000000,0.311040
622.500000,0.306600
623.000000,0.302220
623.500000,0.297960
624.000000,0.293780
624.500000,0.289580
625.000000,0.285280
625.500000,0.280850
626.000000,0.276350
626.500000,0.271860
627.000000,0.267490
627.500000,0.263340
628.000000,0.259420
628.500000,0.255670
629.000000,0.251990
629.500000,0.248270
630.000000,0.244470
630.500000,0.240580
631.000000,0.236620
631.500000,0.232550
632.000000,0.228380
632.500000,0.224110
633.000000,0.219810
633.500000,0.215560
634.000000,0.211440
634.500000,0.207420
635.000000,0.203400
635.500000,0.199310
636.000000,0.195170
636.500000,0.191050
637.000000,0.187030
637.500000,0.183110
638.000000,0.179260
638.500000,0.175490
639.000000,0.171800
639.500000,0.168230
640.000000,0.164750
640.500000,0.161310
641.000000,0.157850
641.500000,0.154350
642.000000,0.150830
642.500000,0.147290
643.000000,0.143720
643.500000,0.140140
644.000000,0.136580
644.500000,0.133120
645.000000,0.129800
645.500000,0.126610
646.000000,0.123460
646.500000,0.120300
647.000000,0.117130
647.500000,0.114050
648.000000,0.111110
648.500000,0.108350
649.000000,0.105730
649.500000,0.103150
650.000000,0.100550
650.500000,0.097890
651.000000,0.095240
651.500000,0.092650
652.000000,0.090240
652.500000,0.088030
653.000000,0.085970
653.500000,0.084000
654.000000,0.082000
654.500000,0.079930
655.000000,0.077790
655.500000,0.075620
656.000000,0.073480
656.500000,0.071450
657.000000,0.069540
657.500000,0.067780
658.000000,0.066110
658.500000,0.064520
659.000000,0.062950
659.500000,0.061380
660.000000,0.059820
660.500000,0.058290
661.000000,0.056820
661.500000,0.055390
662.000000,0.053980
662.500000,0.052600
663.000000,0.051270
663.500000,0.050000
664.000000,0.048770
664.500000,0.047580
665.000000,0.046400
665.500000,0.045260
666.000000,0.044210
666.500000,0.043240
667.000000,0.042340
667.500000,0.041440
668.000000,0.040480
668.500000,0.039460
669.000000,0.038390
669.500000,0.037350
670.000000,0.036400
670.500000,0.035520
671.000000,0.034700
671.500000,0.033880
672.000000,0.033050
672.500000,0.032220
673.000000,0.031400
673.500000,0.030580
674.000000,0.029770
674.500000,0.029010
675.000000,0.028330
675.500000,0.027730
676.000000,0.027170
676.500000,0.026600
677.000000,0.026000
677.500000,0.025390
678.000000,0.024800
678.500000,0.024240
679.000000,0.023700
679.500000,0.023140
680.000000,0.022550
680.500000,0.021940
681.000000,0.021330
681.500000,0.020760
682.000000,0.020220
682.500000,0.019700
683.000000,0.019200
683.500000,0.018730
684.000000,0.018280
684.500000,0.017890
685.000000,0.017530
685.500000,0.017210
686.000000,0.016920
686.500000,0.016640
687.000000,0.016360
687.500000,0.016050
688.000000,0.015710
688.500000,0.015330
689.000000,0.014900
689.500000,0.014450
690.000000,0.014000
690.500000,0.013560
691.000000,0.013150
691.500000,0.012770
692.000000,0.012410
692.500000,0.012090
693.000000,0.011800
693.500000,0.011550
694.000000,0.011340
694.500000,0.011170
695.000000,0.011000
695.500000,0.010830
696.000000,0.010640
696.500000,0.010440
697.000000,0.010270
697.500000,0.010120
698.000000,0.009990
698.500000,0.009890
699.000000,0.009800
699.500000,0.009720
700.000000,0.009670
710.000000,0.000000
