wavelength_nm,intensity
365,0.007970
366,0.007660
367,0.007340
368,0.006700
369,0.006590
370,0.006470
371,0.006280
372,0.006300
373,0.006380
374,0.006300
375,0.006240
376,0.006430
377,0.006570
378,0.006560
379,0.006450
380,0.006330
381,0.006190
382,0.005970
383,0.005960
384,0.006070
385,0.006330
386,0.006560
387,0.006790
388,0.006810
389,0.006820
390,0.006830
391,0.006880
392,0.006780
393,0.006720
394,0.006720
395,0.006740
396,0.006620
397,0.006800
398,0.006890
399,0.007100
400,0.007260
401,0.007500
402,0.007690
403,0.008020
404,0.008520
405,0.008920
406,0.009260
407,0.009710
408,0.010130
409,0.010500
410,0.011130
411,0.011740
412,0.012390
413,0.013190
414,0.014010
415,0.014700
416,0.015580
417,0.016960
418,0.018450
419,0.019930
420,0.021610
421,0.023470
422,0.025170
423,0.027330
424,0.029470
425,0.032360
426,0.035920
427,0.039600
428,0.044120
429,0.049450
430,0.055190
431,0.060950
432,0.067830
433,0.076090
434,0.085140
435,0.094950
436,0.107430
437,0.121380
438,0.136140
439,0.151660
440,0.170080
441,0.188370
442,0.207840
443,0.228860
444,0.250660
445,0.274490
446,0.300250
447,0.326170
448,0.349950
449,0.377930
450,0.403730
451,0.429030
452,0.453720
453,0.480240
454,0.506990
455,0.531620
456,0.554300
457,0.580190
458,0.605080
459,0.627520
460,0.654080
461,0.679640
462,0.702380
463,0.724320
464,0.746040
465,0.763970
466,0.785820
467,0.809760
468,0.834230
469,0.854640
470,0.878450
471,0.897420
472,0.911030
473,0.924510
474,0.941520
475,0.948580
476,0.959180
477,0.968990
478,0.977500
479,0.980240
480,0.992410
481,0.996990
482,0.998430
483,0.997780
484,1.000000
485,0.995160
486,0.994770
487,0.992670
488,0.989790
489,0.984950
490,0.979720
491,0.968600
492,0.959310
493,0.956950
494,0.947140
495,0.935100
496,0.927650
497,0.919140
498,0.901350
499,0.886040
500,0.873220
501,0.853590
502,0.837500
503,0.819970
504,0.806100
505,0.790920
506,0.778100
507,0.763840
508,0.754020
509,0.739110
510,0.722620
511,0.709540
512,0.694880
513,0.676070
514,0.663300
515,0.650830
516,0.635300
517,0.623800
518,0.612760
519,0.598460
520,0.586030
521,0.572550
522,0.555710
523,0.540860
524,0.528500
525,0.516030
526,0.505170
527,0.493290
528,0.481450
529,0.468260
530,0.454780
531,0.441400
532,0.428270
533,0.416720
534,0.405350
535,0.393440
536,0.383540
537,0.376070
538,0.362960
539,0.351490
540,0.340590
541,0.326780
542,0.312290
543,0.303830
544,0.293460
545,0.284400
546,0.275860
547,0.269400
548,0.260980
549,0.252050
550,0.243070
551,0.234840
552,0.226250
553,0.216500
554,0.208010
555,0.199390
556,0.190320
557,0.181190
558,0.174160
559,0.168340
560,0.160460
561,0.155420
562,0.149140
563,0.143410
564,0.136260
565,0.132070
566,0.128470
567,0.123670
568,0.118170
569,0.113660
570,0.109220
571,0.103740
572,0.100380
573,0.097590
574,0.095320
575,0.092230
576,0.088590
577,0.086050
578,0.082950
579,0.079980
580,0.077100
581,0.075210
582,0.072630
583,0.070210
584,0.067970
585,0.066130
586,0.064150
587,0.061720
588,0.059430
589,0.056910
590,0.055240
591,0.053370
592,0.051510
593,0.049710
594,0.048590
595,0.046610
596,0.045270
597,0.044380
598,0.043080
599,0.041200
600,0.040090
601,0.039090
602,0.037870
603,0.037000
604,0.036540
605,0.035620
606,0.034750
607,0.033580
608,0.032580
609,0.031860
610,0.030950
611,0.029950
612,0.029350
613,0.028310
614,0.027050
615,0.026070
616,0.025280
617,0.024240
618,0.023840
619,0.023680
620,0.023390
621,0.022650
622,0.022220
623,0.021500
624,0.020740
625,0.019920
626,0.019430
627,0.018970
628,0.018500
629,0.018170
630,0.018120
631,0.017810
632,0.017260
633,0.016870
634,0.016310
635,0.015560
636,0.015070
637,0.014830
638,0.014570
639,0.014390
640,0.014440
641,0.014080
642,0.013610
643,0.013290
644,0.012960
645,0.012440
646,0.012330
647,0.012120
648,0.012000
649,0.011750
650,0.011650
651,0.011600
652,0.011470
653,0.011250
654,0.010990
655,0.010740
656,0.010380
657,0.010140
658,0.010080
659,0.009930
660,0.009760
661,0.009650
662,0.009590
663,0.009370
664,0.009360
665,0.009200
666,0.009060
667,0.009010
668,0.008890
669,0.008750
670,0.008770
671,0.008730
672,0.008720
673,0.008710
674,0.008750
675,0.008700
676,0.008530
677,0.008380
678,0.008140
679,0.007790
680,0.007600
681,0.007450
682,0.007410
683,0.007570
684,0.007710
685,0.007930
686,0.008080
687,0.007890
688,0.007720
689,0.007560
690,0.007260
691,0.007200
692,0.007260
693,0.007030
694,0.007080
695,0.007120
696,0.006980
697,0.006870
698,0.007050
716,0.006800
717,0.006800
718,0.006850
719,0.006900
720,0.006880
721,0.006720
722,0.006800
723,0.006680
724,0.006370
725,0.006320
726,0.006310
727,0.006330
728,0.006450
729,0.006500
730,0.006550
731,0.006480
732,0.006500
733,0.006230
734,0.006270
735,0.006110
736,0.006210
737,0.006310
738,0.006400
739,0.006570
740,0.006640
741,0.006480
742,0.006150
743,0.006010
744,0.005740
745,0.005670
746,0.005590
747,0.005570
748,0.005680
749,0.005820
750,0.005890
751,0.006020
752,0.006090
753,0.006100
754,0.006240
755,0.006420
756,0.006340
757,0.006280
758,0.006320
759,0.006210
760,0.006090
761,0.006180
762,0.006210
763,0.006170
764,0.006220
765,0.006240
766,0.006240
767,0.006210
768,0.006160
769,0.005980
770,0.005780
771,0.005720
772,0.005650
773,0.005540
774,0.005640
775,0.005690
776,0.005810
777,0.005860
778,0.006000
779,0.005970
780,0.006130
781,0.006130
782,0.006210
783,0.006310
784,0.006370
785,0.006420
786,0.006330
787,0.006420
788,0.006350
789,0.006330
790,0.006230
791,0.006340
792,0.006380
793,0.006400
794,0.006440
795,0.006240
796,0.006180
797,0.006070
798,0.006060
799,0.006080
800,0.006250
801,0.006390
802,0.006430
803,0.006340
804,0.006190
805,0.006170
806,0.006070
807,0.006070
808,0.006250
809,0.006310
810,0.006360
811,0.006420
812,0.006350
813,0.006090
814,0.005850
815,0.005520
816,0.005340
817,0.005450
818,0.005670
819,0.005980
820,0.006240
821,0.006370
822,0.006280
823,0.006160
824,0.006150
825,0.006370
826,0.006450
827,0.006480
828,0.006510
829,0.006440
830,0.006200
831,0.006040
832,0.006030
833,0.006100
834,0.006130
835,0.006330
836,0.006280
837,0.006280
838,0.006230
839,0.006200
840,0.006080
841,0.006110
842,0.006040
843,0.006110
844,0.006190
845,0.006300
846,0.006340
847,0.006440
848,0.006410
849,0.006340
850,0.006260
851,0.006320
852,0.006320
853,0.006350
854,0.006550
855,0.006640
856,0.006670
857,0.006750
858,0.006660
859,0.006550
860,0.006490
861,0.006620
862,0.006490
863,0.006550
864,0.006490
865,0.006600
866,0.006610
867,0.006890
868,0.007150
869,0.007230
870,0.007270
871,0.007150
872,0.006950
873,0.006720
874,0.006780
875,0.006710
876,0.006780
877,0.006790
878,0.006880
879,0.006910
880,0.006950
881,0.006990
882,0.007340
883,0.007550
884,0.007710
885,0.007720
886,0.007770
887,0.007850
888,0.007850
889,0.007950
890,0.008060
891,0.008120
892,0.008020
893,0.008070
894,0.008110
895,0.008270
896,0.008490
897,0.008560
898,0.008600
899,0.008600
900,0.008610
