wavelength_nm,intensity
365,0.000864
366,0.000837
367,0.000814
368,0.000770
369,0.000759
370,0.000780
371,0.000785
372,0.000795
373,0.000795
374,0.000797
375,0.000800
376,0.000803
377,0.000813
378,0.000811
379,0.000830
380,0.000819
381,0.000800
382,0.000793
383,0.000805
384,0.000787
385,0.000805
386,0.000854
387,0.000875
388,0.000888
389,0.000937
390,0.000955
391,0.000968
392,0.001010
393,0.001050
394,0.001070
395,0.001130
396,0.001210
397,0.001300
398,0.001440
399,0.001650
400,0.001850
401,0.002090
402,0.002450
403,0.002870
404,0.003400
405,0.004050
406,0.004900
407,0.005990
408,0.007400
409,0.009370
410,0.012070
411,0.015530
412,0.019940
413,0.025330
414,0.031530
415,0.038780
416,0.046980
417,0.056520
418,0.068660
419,0.083290
420,0.100850
421,0.121540
422,0.145390
423,0.171510
424,0.200990
425,0.233130
426,0.268260
427,0.305490
428,0.345230
429,0.385820
430,0.427690
431,0.471130
432,0.516060
433,0.561260
434,0.607150
435,0.651240
436,0.693670
437,0.733770
438,0.770120
439,0.802030
440,0.831750
441,0.857980
442,0.880920
443,0.901940
444,0.922190
445,0.938700
446,0.953630
447,0.966440
448,0.976540
449,0.984390
450,0.990520
451,0.994110
452,0.996440
453,0.998640
454,0.999510
455,1.000000
456,0.998510
457,0.995740
458,0.991720
459,0.985610
460,0.979310
461,0.974670
462,0.969000
463,0.962180
464,0.955390
465,0.947930
466,0.939050
467,0.929470
468,0.918900
469,0.908020
470,0.896560
471,0.883560
472,0.870580
473,0.856600
474,0.842320
475,0.826920
476,0.812210
477,0.797710
478,0.783890
479,0.770750
480,0.757610
481,0.743570
482,0.729640
483,0.716780
484,0.703230
485,0.690550
486,0.679150
487,0.667230
488,0.654980
489,0.642030
490,0.628920
491,0.615780
492,0.602640
493,0.588710
494,0.575840
495,0.563220
496,0.549590
497,0.536260
498,0.523340
499,0.511330
500,0.500010
501,0.488340
502,0.477260
503,0.466890
504,0.455540
505,0.444490
506,0.434390
507,0.424130
508,0.413730
509,0.403800
510,0.393370
511,0.383570
512,0.373610
513,0.364130
514,0.354140
515,0.344750
516,0.335030
517,0.325550
518,0.315830
519,0.307250
520,0.298430
521,0.289690
522,0.282030
523,0.274590
524,0.267070
525,0.259710
526,0.252440
527,0.245050
528,0.237830
529,0.230550
530,0.223790
531,0.217710
532,0.211660
533,0.206040
534,0.200550
535,0.194720
536,0.188960
537,0.183150
538,0.177480
539,0.171940
540,0.166620
541,0.162000
542,0.157550
543,0.153230
544,0.148750
545,0.145090
546,0.141060
547,0.137050
548,0.133190
549,0.129840
550,0.126010
551,0.122510
552,0.118940
553,0.115790
554,0.112340
555,0.109240
556,0.105840
557,0.102260
558,0.098560
559,0.095060
560,0.091760
561,0.089130
562,0.087100
563,0.084740
564,0.082680
565,0.080810
566,0.078350
567,0.076150
568,0.074390
569,0.072390
570,0.070290
571,0.068560
572,0.066740
573,0.065030
574,0.063630
575,0.062270
576,0.060700
577,0.059280
578,0.057900
579,0.056440
580,0.055090
581,0.053930
582,0.052630
583,0.051230
584,0.050280
585,0.048810
586,0.047420
587,0.045940
588,0.044530
589,0.043060
590,0.041840
591,0.040710
592,0.039750
593,0.038810
594,0.037520
595,0.036450
596,0.035380
597,0.034310
598,0.033250
599,0.032290
600,0.031460
601,0.030560
602,0.029630
603,0.028750
604,0.027950
605,0.027000
606,0.026060
607,0.025180
608,0.024290
609,0.023540
610,0.022950
611,0.022300
612,0.021710
613,0.020970
614,0.020020
615,0.019090
616,0.018400
617,0.017680
618,0.017110
619,0.016780
620,0.016310
621,0.015660
622,0.015010
623,0.014370
624,0.013920
625,0.013370
626,0.012840
627,0.012440
628,0.012070
629,0.011540
630,0.011080
631,0.010770
632,0.010350
633,0.009970
634,0.009610
635,0.009330
636,0.008990
637,0.008680
638,0.008350
639,0.008080
640,0.007860
641,0.007670
642,0.007530
643,0.007310
644,0.007070
645,0.006770
646,0.006550
647,0.006330
648,0.006170
649,0.006030
650,0.005910
651,0.005700
652,0.005520
653,0.005320
654,0.005140
655,0.004990
656,0.004890
657,0.004740
658,0.004640
659,0.004500
660,0.004390
661,0.004280
662,0.004180
663,0.004060
664,0.003920
665,0.003800
666,0.003670
667,0.003530
668,0.003460
669,0.003420
670,0.003340
671,0.003260
672,0.003200
673,0.003140
674,0.003030
675,0.002920
676,0.002840
677,0.002770
678,0.002680
679,0.002620
680,0.002560
681,0.002510
682,0.002440
683,0.002380
684,0.002320
685,0.002270
686,0.002230
687,0.002190
688,0.002150
689,0.002100
690,0.002070
691,0.001990
692,0.001940
693,0.001870
694,0.001810
695,0.001740
696,0.001710
697,0.001690
698,0.001690
716,0.001240
717,0.001210
718,0.001200
719,0.001180
720,0.001190
721,0.001160
722,0.001140
723,0.001130
724,0.001120
725,0.001100
726,0.001120
727,0.001110
728,0.001100
729,0.001060
730,0.001040
731,0.001010
732,0.000988
733,0.000985
734,0.001000
735,0.000988
736,0.000983
737,0.000975
738,0.000954
739,0.000939
740,0.000934
741,0.000926
742,0.000903
743,0.000904
744,0.000885
745,0.000847
746,0.000805
747,0.000787
748,0.000759
749,0.000757
750,0.000758
751,0.000772
752,0.000780
753,0.000779
754,0.000753
755,0.000751
756,0.000746
757,0.000735
758,0.000731
759,0.000751
760,0.000750
761,0.000749
762,0.000748
763,0.000734
764,0.000716
765,0.000699
766,0.000675
767,0.000665
768,0.000670
769,0.000658
770,0.000660
771,0.000668
772,0.000662
773,0.000651
774,0.000655
775,0.000655
776,0.000641
777,0.000638
778,0.000636
779,0.000640
780,0.000644
781,0.000658
782,0.000675
783,0.000675
784,0.000664
785,0.000665
786,0.000675
787,0.000661
788,0.000662
789,0.000654
790,0.000650
791,0.000618
792,0.000612
793,0.000609
794,0.000617
795,0.000603
796,0.000605
797,0.000609
798,0.000618
799,0.000622
800,0.000629
801,0.000640
802,0.000640
803,0.000640
804,0.000628
805,0.000639
806,0.000654
807,0.000653
808,0.000648
809,0.000660
810,0.000667
811,0.000656
812,0.000663
813,0.000673
814,0.000677
815,0.000679
816,0.000678
817,0.000695
818,0.000698
819,0.000709
820,0.000710
821,0.000740
822,0.000740
823,0.000743
824,0.000759
825,0.000781
826,0.000792
827,0.000814
828,0.000856
829,0.000874
830,0.000891
831,0.000912
832,0.000950
833,0.001010
834,0.001070
835,0.001120
836,0.001190
837,0.001250
838,0.001270
839,0.001290
840,0.001350
841,0.001420
842,0.001480
843,0.001570
844,0.001710
845,0.001830
846,0.001910
847,0.002010
848,0.002100
849,0.002220
850,0.002350
851,0.002440
852,0.002530
853,0.002620
854,0.002680
855,0.002750
856,0.002900
857,0.003080
858,0.003220
859,0.003300
860,0.003420
861,0.003540
862,0.003620
863,0.003730
864,0.003870
865,0.003960
866,0.004060
867,0.004160
868,0.004260
869,0.004300
870,0.004410
871,0.004470
872,0.004560
873,0.004650
874,0.004760
875,0.004800
876,0.004820
877,0.004830
878,0.004900
879,0.004950
880,0.005010
881,0.005050
882,0.005140
883,0.005130
884,0.005150
885,0.005170
886,0.005240
887,0.005270
888,0.005310
889,0.005330
890,0.005350
891,0.005390
892,0.005340
893,0.005300
894,0.005360
895,0.005410
896,0.005490
897,0.005510
898,0.005560
899,0.005550
900,0.005530
